# Step     T (K)     E_KS (eV)    E_tot (eV)   Vol (A^3)    P (kBar)
     1      0.00  -16601.42116  -16601.34893     965.350     187.056
     2      0.13  -16601.93202  -16601.34316     967.490     177.145
     3      0.49  -16602.85737  -16601.31530     971.628     158.604
     4      0.96  -16604.03253  -16601.25674     977.497     133.501
     5      1.40  -16605.26658  -16601.16798     984.744     103.355
     6      1.69  -16606.37729  -16601.05372     992.965      69.838
     7      1.79  -16607.23636  -16600.92837    1001.739      35.649
     8      1.72  -16607.78487  -16600.80533    1010.672       3.013
     9      1.55  -16608.02657  -16600.69799    1019.432     -27.572
    10      1.40  -16607.99472  -16600.61010    1027.755     -56.205
    11      1.41  -16607.75646  -16600.55063    1035.444     -81.505
    12      1.65  -16607.38055  -16600.51562    1042.380    -103.461
    13      2.14  -16606.93290  -16600.50263    1048.504    -122.219
    14      2.82  -16606.46393  -16600.50534    1053.809    -137.942
    15      3.59  -16606.00807  -16600.51766    1058.328    -151.556
    16      4.37  -16605.58602  -16600.53388    1062.118    -163.029
    17      5.11  -16605.21168  -16600.55098    1065.253    -172.347
    18      5.80  -16604.89006  -16600.56558    1067.812    -179.933
    19      6.51  -16604.62171  -16600.57632    1069.878    -186.080
    20      7.36  -16604.40357  -16600.58232    1071.528    -191.024
    21      8.50  -16604.23128  -16600.58378    1072.834    -194.966
    22     10.18  -16604.09949  -16600.58098    1073.860    -198.046
    23     12.68  -16604.00290  -16600.57471    1074.660    -200.414
    24     16.36  -16603.93610  -16600.56611    1075.280    -202.154
    25     21.60  -16603.89240  -16600.55571    1075.758    -203.341
    26     28.83  -16603.86372  -16600.54364    1076.126    -204.074
    27     38.54  -16603.84055  -16600.52965    1076.407    -204.425
    28     51.39  -16603.81260  -16600.51307    1076.623    -204.476
    29     68.47  -16603.77229  -16600.49457    1076.789    -204.271
    30     91.67  -16603.71612  -16600.47543    1076.916    -203.809
    31    124.24  -16603.64714  -16600.45839    1077.013    -203.199
    32    171.39  -16603.57516  -16600.44769    1077.088    -202.429
    33    240.88  -16603.51324  -16600.44851    1077.147    -201.572
    34    343.23  -16603.47305  -16600.46878    1077.192    -200.544
    35    491.27  -16603.45488  -16600.51728    1077.228    -199.214
    36    698.28  -16603.44251  -16600.60394    1077.256    -197.491
    37    973.65  -16603.40274  -16600.73763    1077.278    -195.033
    38   1315.06  -16603.29562  -16600.92308    1077.297    -191.477
    39   1698.26  -16603.09617  -16601.15556    1077.312    -186.703
    40   2069.70  -16602.82003  -16601.41788    1077.326    -180.949
    41   2352.46  -16602.52825  -16601.67943    1077.337    -174.989
    42   2473.00  -16602.31183  -16601.90575    1077.348    -170.070
    43   2397.90  -16602.25157  -16602.07200    1077.359    -167.456
    44   2152.65  -16602.37474  -16602.16994    1077.369    -167.382
    45   1805.85  -16602.65085  -16602.21411    1077.380    -169.629
    46   1433.29  -16603.00855  -16602.22841    1077.392    -173.222
    47   1089.98  -16603.36425  -16602.23045    1077.406    -176.684
    48    802.80  -16603.65366  -16602.22786    1077.420    -179.613
    49    577.46  -16603.85401  -16602.22674    1077.436    -181.767
    50    407.93  -16603.96688  -16602.22755    1077.454    -182.938
    51    283.76  -16604.00353  -16602.22631    1077.473    -183.400
    52    194.47  -16603.98329  -16602.22024    1077.492    -183.389
    53    131.30  -16603.93061  -16602.20941    1077.509    -183.082
    54     87.52  -16603.87061  -16602.19552    1077.523    -182.769
    55     58.07  -16603.82425  -16602.18030    1077.529    -182.506
    56     39.06  -16603.80534  -16602.16509    1077.521    -182.381
    57     27.39  -16603.81963  -16602.15082    1077.491    -182.417
    58     20.60  -16603.86597  -16602.13804    1077.426    -182.553
    59     16.70  -16603.93923  -16602.12716    1077.312    -182.780
    60     14.26  -16604.03350  -16602.11858    1077.125    -183.054
    61     12.34  -16604.14530  -16602.11282    1076.839    -183.206
    62     10.47  -16604.27561  -16602.11061    1076.418    -183.125
    63      8.53  -16604.43015  -16602.11258    1075.818    -182.723
    64      6.67  -16604.61908  -16602.11976    1074.985    -181.804
    65      5.14  -16604.85494  -16602.13285    1073.855    -180.194
    66      4.18  -16605.15025  -16602.15222    1072.354    -177.732
    67      4.00  -16605.51467  -16602.17738    1070.399    -174.213
    68      4.66  -16605.95264  -16602.20734    1067.900    -169.283
    69      6.14  -16606.46026  -16602.23996    1064.766    -162.785
    70      8.33  -16607.02155  -16602.27056    1060.906    -154.403
    71     11.06  -16607.60852  -16602.29509    1056.246    -143.707
    72     14.16  -16608.17708  -16602.30768    1050.729    -130.563
    73     17.50  -16608.66764  -16602.30174    1044.337    -114.555
    74     20.96  -16609.01092  -16602.27207    1037.098     -95.937
    75     24.48  -16609.13121  -16602.21494    1029.103     -74.023
    76     27.98  -16608.96120  -16602.12871    1020.518     -49.641
    77     31.36  -16608.46697  -16602.01884    1011.588     -23.321
    78     34.42  -16607.66271  -16601.89425    1002.637       3.830
    79     36.83  -16606.62614  -16601.76818     994.049      31.061
    80     38.17  -16605.50386  -16601.65396     986.252      56.031
    81     38.06  -16604.50222  -16601.56592     979.672      76.583
    82     36.39  -16603.83608  -16601.51087     974.683      91.219
    83     33.64  -16603.67419  -16601.48499     971.561      98.337
    84     31.06  -16604.09187  -16601.47500     970.444      97.367
    85     30.68  -16605.04529  -16601.46118     971.312      88.755
    86     34.88  -16606.38699  -16601.42708     973.988      73.326
    87     45.68  -16607.90310  -16601.36528     978.167      52.299
    88     63.97  -16609.36463  -16601.27870     983.450      27.839
    89     88.85  -16610.58207  -16601.18327     989.404       2.106
    90    117.60  -16611.42275  -16601.09438     995.606     -23.355
    91    146.16  -16611.81745  -16601.02664    1001.683     -47.964
    92    170.09  -16611.75597  -16600.98431    1007.323     -70.373
    93    185.86  -16611.28604  -16600.96516    1012.295     -90.062
    94    191.97  -16610.49727  -16600.96304    1016.441    -106.995
    95    189.50  -16609.51118  -16600.97143    1019.669    -121.109
    96    182.01  -16608.46606  -16600.98505    1021.942    -132.300
    97    174.94  -16607.50170  -16601.00099    1023.270    -140.538
    98    174.39  -16606.73956  -16601.01741    1023.697    -145.976
    99    185.86  -16606.26573  -16601.03400    1023.298    -148.973
   100    213.01  -16606.11806  -16601.05134    1022.163    -149.679
   101    256.56  -16606.28038  -16601.07087    1020.392    -148.185
   102    313.75  -16606.68404  -16601.09440    1018.085    -144.469
   103    378.37  -16607.21689  -16601.12126    1015.339    -138.516
   104    441.62  -16607.74290  -16601.14679    1012.240    -130.574
   105    494.02  -16608.13751  -16601.16704    1008.859    -120.986
   106    528.62  -16608.33008  -16601.18234    1005.254    -109.940
   107    544.47  -16608.33687  -16601.19484    1001.467     -98.192
   108    548.08  -16608.26919  -16601.20869     997.530     -86.272
   109    551.39  -16608.29791  -16601.23093     993.467     -74.824
   110    566.23  -16608.58172  -16601.27071     989.295     -64.151
   111    598.00  -16609.18645  -16601.33598     985.025     -54.291
   112    641.82  -16610.04160  -16601.43022     980.665     -45.102
   113    683.75  -16610.95941  -16601.54876     976.217     -36.038
   114    706.99  -16611.71301  -16601.67880     971.675     -26.472
   115    700.07  -16612.13114  -16601.80037     967.034     -15.504
   116    662.20  -16612.16750  -16601.89424     962.285      -3.290
   117    602.49  -16611.91106  -16601.96486     957.425      10.632
   118    534.49  -16611.50521  -16602.02396     952.457      26.234
   119    471.68  -16611.08882  -16602.07001     947.397      42.628
   120    423.82  -16610.76984  -16602.09822     942.276      59.743
   121    394.70  -16610.59980  -16602.10758     937.141      77.109
   122    382.10  -16610.57417  -16602.10337     932.054      94.100
   123    379.01  -16610.63359  -16602.09063     927.093     110.827
   124    375.99  -16610.68082  -16602.06858     922.351     127.154
   125    364.68  -16610.62846  -16602.03549     917.939     141.834
   126    340.88  -16610.44141  -16601.98968     913.987     154.570
   127    305.59  -16610.18875  -16601.96181     910.651     164.038
   128    262.55  -16609.96398  -16601.95542     908.108     169.193
   129    217.08  -16609.87465  -16601.95728     906.546     168.921
   130    176.23  -16610.06539  -16601.97253     906.146     162.280
   131    146.34  -16610.65383  -16602.00575     907.066     148.486
   132    130.45  -16611.67070  -16602.05336     909.424     126.987
   133    127.49  -16613.03597  -16602.10662     913.266      98.179
   134    133.21  -16614.56801  -16602.15242     918.546      62.844
   135    142.16  -16616.02962  -16602.17777     925.108      23.131
   136    149.46  -16617.19052  -16602.17513     932.683     -18.993
   137    151.63  -16617.86975  -16602.14153     940.898     -62.288
   138    147.06  -16617.96393  -16602.07058     949.285    -104.880
   139    136.15  -16617.49951  -16601.97097     957.305    -144.006
   140    120.92  -16616.61356  -16601.85248     964.397    -178.361
   141    104.15  -16615.52281  -16601.72947     970.009    -207.442
   142     88.75  -16614.47896  -16601.61129     973.646    -229.592
   143     77.21  -16613.72802  -16601.51003     974.920    -244.723
   144     71.35  -16613.44455  -16601.42175     973.585    -252.672
   145     72.10  -16613.71145  -16601.33925     969.561    -253.288
   146     79.44  -16614.50143  -16601.25186     962.944    -246.286
   147     92.38  -16615.68649  -16601.15151     953.998    -232.069
   148    108.90  -16617.06578  -16601.03545     943.127    -211.275
   149    126.07  -16618.40827  -16600.90666     930.832    -184.503
   150    140.31  -16619.50442  -16600.77552     917.660    -152.843
   151    147.87  -16620.19133  -16600.64362     904.160    -117.215
   152    145.74  -16620.39884  -16600.51603     890.844     -79.520
   153    132.74  -16620.15545  -16600.39127     878.150     -41.659
   154    110.42  -16619.57617  -16600.26398     866.423      -4.468
   155     83.48  -16618.84221  -16600.12929     855.912      30.294
   156     59.22  -16618.16957  -16599.98371     846.768      60.278
   157     45.83  -16617.75618  -16599.82757     839.043      85.153
   158     49.75  -16617.72110  -16599.65844     832.705     104.539
   159     73.01  -16618.09239  -16599.49276     827.660     118.583
   160    111.39  -16618.76411  -16599.33039     823.773     127.904
   161    154.67  -16619.54556  -16599.17352     820.887     133.043
   162    189.28  -16620.21527  -16599.01765     818.841     134.797
   163    202.90  -16620.59633  -16598.85012     817.483     133.885
   164    189.30  -16620.62005  -16598.65351     816.675     130.536
   165    151.26  -16620.35222  -16598.41261     816.298     124.928
   166    100.26  -16619.96940  -16598.12030     816.247     117.409
   167     53.20  -16619.69696  -16597.78278     816.433     107.952
   168     27.57  -16619.73272  -16597.42282     816.781      97.005
   169     36.89  -16620.17964  -16597.07788     817.226      85.167
   170     86.99  -16621.00301  -16596.79419     817.716      73.309
   171    173.47  -16622.02031  -16596.61553     818.214      62.311
   172    280.59  -16622.92730  -16596.56917     818.694      53.309
   173    383.57  -16623.37022  -16596.65089     819.139      47.202
   174    456.58  -16623.07226  -16596.82050     819.543      44.439
   175    485.17  -16621.97298  -16597.01427     819.904      44.621
   176    478.63  -16620.34807  -16597.19100     820.226      45.989
   177    474.69  -16618.80118  -16597.36060     820.510      46.776
   178    528.55  -16618.06142  -16597.58980     820.762      45.241
   179    686.81  -16618.63750  -16597.98345     820.985      40.160
   180    955.87  -16620.49574  -16598.63509     821.184      32.560
   181   1281.44  -16622.97252  -16599.56126     821.363      24.153
   182   1559.17  -16625.04245  -16600.66210     821.527      17.184
   183   1684.30  -16625.82831  -16601.74759     821.681      12.958
   184   1612.07  -16625.09087  -16602.69419     821.830      10.113
   185   1383.47  -16623.19699  -16603.39122     821.979       7.743
   186   1091.57  -16620.95867  -16603.88275     822.132       4.140
   187    826.28  -16619.10541  -16604.18842     822.291      -1.216
   188    641.03  -16618.16652  -16604.38950     822.460      -7.582
   189    545.11  -16618.27893  -16604.54393     822.639     -14.744
   190    515.61  -16619.23023  -16604.68981     822.828     -21.940
   191    513.84  -16620.56132  -16604.83562     823.025     -28.353
   192    501.09  -16621.72091  -16604.95981     823.225     -33.399
   193    452.83  -16622.26516  -16605.02861     823.419     -36.734
   194    365.98  -16622.00132  -16605.01240     823.592     -38.589
   195    256.40  -16621.02571  -16604.90207     823.725     -39.568
   196    148.94  -16619.64384  -16604.71065     823.789     -40.605
   197     66.33  -16618.22948  -16604.46470     823.746     -42.493
   198     21.81  -16617.09844  -16604.19744     823.546     -45.797
   199     16.54  -16616.42234  -16603.93982     823.129     -50.272
   200     40.92  -16616.20247  -16603.71315     822.422     -55.897
   201     79.01  -16616.30841  -16603.52640     821.342     -62.063
   202    114.13  -16616.55546  -16603.37799     819.793     -67.486
   203    134.00  -16616.78674  -16603.26120     817.669     -71.401
   204    133.59  -16616.92551  -16603.16762     814.856     -72.666
   205    115.40  -16616.99032  -16603.08993     811.240     -70.446
   206     87.64  -16617.07464  -16603.02221     806.715     -63.533
   207     61.06  -16617.30330  -16602.95997     801.200     -51.659
   208     45.81  -16617.77770  -16602.89867     794.653     -33.409
   209     49.02  -16618.53440  -16602.83557     787.095      -9.200
   210     73.48  -16619.52497  -16602.77234     778.617      21.280
   211    117.19  -16620.60988  -16602.71132     769.397      58.039
   212    173.44  -16621.57594  -16602.64457     759.698      99.744
   213    231.72  -16622.22575  -16602.58952     749.862     143.627
   214    279.67  -16622.37925  -16602.53289     740.292     187.468
   215    306.23  -16621.94661  -16602.45656     731.433     229.483
   216    305.38  -16621.00383  -16602.36189     723.768     263.282
   217    278.84  -16619.78133  -16602.25454     717.771     283.850
   218    236.13  -16618.60227  -16602.15262     713.855     288.353
   219    191.50  -16617.76665  -16602.07349     712.320     274.709
   220    158.93  -16617.42211  -16602.02378     713.280     243.035
   221    147.33  -16617.47296  -16601.99007     716.607     195.576
   222    157.94  -16617.61082  -16601.95391     721.892     136.377
   223    184.65  -16617.45671  -16601.89780     728.455      73.717
   224    216.89  -16616.75426  -16601.81714     735.439      13.956
   225    243.62  -16615.47861  -16601.71776     741.911     -37.861
   226    256.73  -16613.83984  -16601.60609     746.959     -77.472
   227    252.82  -16612.22904  -16601.51455     749.792    -101.581
   228    231.73  -16611.01422  -16601.45648     749.826    -108.730
   229    195.90  -16610.42365  -16601.44629     746.785     -97.468
   230    151.65  -16610.45723  -16601.46394     740.780     -67.873
   231    108.34  -16610.93401  -16601.48656     732.334     -20.870
   232     76.73  -16611.58594  -16601.48443     722.361      40.971
   233     66.72  -16612.24335  -16601.44950     712.073     110.039
   234     83.41  -16612.92009  -16601.39880     702.738     178.498
   235    122.40  -16613.70137  -16601.36468     695.444     236.588
   236    167.44  -16614.49262  -16601.35586     690.862     279.452
   237    195.34  -16614.94989  -16601.35846     689.189     305.096
   238    188.99  -16614.72083  -16601.33222     690.216     314.900
   239    151.21  -16613.86729  -16601.27087     693.487     311.935
   240    107.44  -16612.95704  -16601.18381     698.458     298.222
   241     93.34  -16612.80108  -16601.09892     704.595     274.195
   242    132.79  -16613.93241  -16601.03079     711.409     242.677
   243    221.10  -16616.23192  -16600.97554     718.513     207.015
   244    326.45  -16619.00034  -16600.92929     725.636     171.469
   245    408.10  -16621.37658  -16600.89004     732.633     139.540
   246    438.78  -16622.79475  -16600.86363     739.476     113.321
   247    415.74  -16623.13363  -16600.83936     746.220      92.820
   248    359.76  -16622.67797  -16600.80502     752.980      75.567
   249    304.70  -16621.95159  -16600.75967     759.878      59.334
   250    283.27  -16621.49241  -16600.72604     767.002      41.207
   251    316.27  -16621.65945  -16600.73144     774.366      20.625
   252    405.73  -16622.53588  -16600.81426     781.909      -2.337
   253    532.82  -16623.86773  -16600.96921     789.504     -26.873
   254    661.53  -16625.21142  -16601.19393     796.988     -50.365
   255    749.55  -16626.06144  -16601.45004     804.198     -71.577
   256    765.60  -16626.04958  -16601.67085     810.983     -88.858
   257    706.29  -16625.19807  -16601.85691     817.217    -101.275
   258    591.03  -16623.72272  -16601.97420     822.818    -109.344
   259    453.34  -16622.01717  -16602.02556     827.703    -113.457
   260    333.23  -16620.56660  -16602.02092     831.802    -114.186
   261    261.41  -16619.78110  -16601.99650     835.079    -111.481
   262    249.74  -16619.82362  -16601.97996     837.561    -105.377
   263    289.37  -16620.56672  -16601.98624     839.353     -95.941
   264    356.17  -16621.67536  -16602.02211     840.654     -82.343
   265    418.95  -16622.74291  -16602.09167     841.756     -65.741
   266    449.75  -16623.40161  -16602.15661     843.038     -47.542
   267    434.85  -16623.54452  -16602.22177     844.938     -29.983
   268    377.54  -16623.25856  -16602.25854     847.907     -17.110
   269    295.16  -16622.81098  -16602.27168     852.330     -11.803
   270    211.40  -16622.44686  -16602.26940     858.408     -16.647
   271    145.53  -16622.18498  -16602.23313     865.997     -30.018
   272    106.56  -16621.83315  -16602.12829     874.569     -48.601
   273     94.25  -16621.23326  -16602.00115     883.296     -66.297
   274    101.18  -16620.25387  -16601.86960     891.205     -78.457
   275    115.36  -16618.89304  -16601.70993     897.308     -80.756
   276    127.12  -16617.49223  -16601.56237     900.865     -70.784
   277    132.74  -16616.46716  -16601.48719     901.666     -49.248
   278    131.57  -16615.93142  -16601.45429     900.044     -18.176
   279    125.12  -16615.77332  -16601.42627     896.816      18.348
   280    116.50  -16615.77721  -16601.38072     893.182      54.930
   281    108.68  -16615.75811  -16601.30914     890.558      86.061
   282    103.18  -16615.71233  -16601.23582     890.358     105.232
   283    100.44  -16615.77922  -16601.18118     893.722     106.069
   284     99.96  -16616.03621  -16601.11544     901.262      86.973
   285    100.83  -16616.43752  -16601.04117     912.923      48.746
   286    102.50  -16616.72873  -16600.97160     927.887      -2.070
   287    104.73  -16616.55972  -16600.91626     944.776     -57.613
   288    107.50  -16615.74912  -16600.89037     961.992    -109.708
   289    110.96  -16614.39289  -16600.90798     978.064    -154.509
   290    115.47  -16612.78228  -16600.97281     991.835    -189.594
   291    121.57  -16611.25377  -16601.06671    1002.569    -214.090
   292    129.85  -16610.06735  -16601.16215    1009.954    -228.943
   293    140.87  -16609.35314  -16601.23415    1014.041    -235.215
   294    155.18  -16609.11718  -16601.26702    1015.141    -233.814
   295    173.27  -16609.27584  -16601.25688    1013.739    -226.012
   296    195.57  -16609.70222  -16601.21098    1010.393    -213.123
   297    222.48  -16610.26736  -16601.14292    1005.667    -196.608
   298    254.41  -16610.86651  -16601.06866    1000.067    -177.498
   299    291.74  -16611.42533  -16601.00160     994.026    -156.249
   300    334.72  -16611.90139  -16600.95033     987.888    -134.278
   301    383.44  -16612.28543  -16600.92107     981.909    -112.481
   302    437.71  -16612.58896  -16600.91730     976.259     -91.501
   303    496.74  -16612.83005  -16600.93811     971.044     -71.795
   304    558.87  -16613.02533  -16600.98056     966.315     -53.388
   305    621.45  -16613.18853  -16601.04257     962.085     -36.745
   306    680.86  -16613.33338  -16601.12810     958.345     -21.709
   307    732.70  -16613.44703  -16601.22375     955.066      -8.218
   308    772.44  -16613.52108  -16601.32591     952.217       3.464
   309    796.61  -16613.54707  -16601.42652     949.762      13.626
   310    803.96  -16613.53778  -16601.52432     947.665      22.197
   311    795.62  -16613.51979  -16601.61780     945.903      29.293
   312    774.17  -16613.51999  -16601.70469     944.456      35.039
   313    742.54  -16613.55514  -16601.78297     943.320      39.342
   314    703.28  -16613.62775  -16601.85185     942.497      41.848
   315    658.08  -16613.72134  -16601.91067     942.000      42.852
   316    608.08  -16613.80465  -16601.95718     941.847      42.658
   317    554.53  -16613.84644  -16601.98966     942.065      40.611
   318    499.23  -16613.82199  -16602.00809     942.679      36.070
   319    444.24  -16613.69930  -16602.00254     943.701      29.932
   320    391.65  -16613.47153  -16601.98230     945.127      22.039
   321    343.32  -16613.12291  -16601.93894     946.920      12.538
   322    300.44  -16612.65535  -16601.87086     948.999       1.496
   323    263.38  -16612.09550  -16601.78283     951.226     -10.153
   324    231.80  -16611.50729  -16601.69010     953.398     -21.582
   325    205.16  -16610.98484  -16601.60584     955.252     -32.111
   326    182.78  -16610.65346  -16601.54250     956.469     -40.917
   327    163.93  -16610.66236  -16601.52005     956.693     -46.788
   328    148.00  -16611.13201  -16601.55290     955.586     -48.884
   329    134.67  -16612.08717  -16601.63818     952.894     -46.332
   330    123.95  -16613.41743  -16601.76579     948.544     -38.413
   331    116.61  -16614.83376  -16601.89901     942.754     -25.567
   332    114.47  -16615.93471  -16601.97042     936.168      -9.881
   333    119.57  -16616.48880  -16601.95602     929.892       4.543
   334    132.01  -16616.61635  -16601.87282     925.339      10.854
   335    147.83  -16616.72009  -16601.79860     923.806       2.248
   336    159.63  -16617.05264  -16601.77977     925.940     -24.824
   337    159.63  -16617.44234  -16601.80022     931.273     -66.459
   338    143.50  -16617.43914  -16601.78509     938.080    -113.626
   339    114.03  -16616.88766  -16601.70706     943.681    -155.377
   340     80.77  -16616.22758  -16601.60003     945.195    -183.027
   341     55.07  -16616.19827  -16601.52132     940.377    -190.947
   342     45.35  -16617.22449  -16601.49246     928.316    -176.212
   343     54.86  -16619.03256  -16601.48342     909.772    -138.528
   344     80.64  -16620.81703  -16601.44416     887.115     -81.100
   345    114.36  -16621.91002  -16601.35292     863.792     -13.240
   346    146.16  -16622.39027  -16601.23417     843.358      48.839
   347    169.82  -16622.89222  -16601.15502     828.309      87.843
   348    184.70  -16623.64321  -16601.12027     819.275      95.337
   349    192.94  -16624.12239  -16601.08868     815.042      76.349
   350    195.77  -16623.75055  -16601.03684     813.335      44.253
   351    192.58  -16622.58822  -16600.98294     811.780      12.790
   352    182.84  -16621.23992  -16600.94476     808.585      -8.309
   353    168.79  -16620.30887  -16600.91479     802.842     -14.445
   354    157.10  -16620.01820  -16600.87633     794.508      -4.069
   355    158.80  -16620.20171  -16600.82359     784.253      21.082
   356    187.11  -16620.56152  -16600.77502     773.200      56.574
   357    252.53  -16620.93665  -16600.75353     762.620      94.511
   358    355.43  -16621.40288  -16600.80511     753.585     127.371
   359    479.44  -16622.00691  -16600.92208     746.760     149.108
   360    592.02  -16622.57630  -16601.07835     742.335     157.570
   361    655.92  -16622.72190  -16601.22157     740.123     154.062
   362    649.00  -16622.14520  -16601.31042     739.714     140.962
   363    578.25  -16620.92469  -16601.38254     740.666     121.646
   364    476.38  -16619.34533  -16601.37619     742.523      98.019
   365    385.22  -16617.98925  -16601.39378     744.866      72.154
   366    337.05  -16617.17445  -16601.39161     747.300      46.531
   367    343.68  -16617.08023  -16601.41527     749.468      23.046
   368    394.74  -16617.59311  -16601.46901     751.076       3.847
   369    462.40  -16618.35858  -16601.52805     751.935      -9.115
   370    516.57  -16619.01516  -16601.54759     751.978     -14.151
   371    534.43  -16619.47204  -16601.66013     751.165     -12.344
   372    502.12  -16619.38170  -16601.70829     749.580      -4.274
   373    425.11  -16618.82690  -16601.73200     747.450       8.296
   374    325.52  -16618.09293  -16601.73610     745.053      22.267
   375    230.40  -16617.52850  -16601.73046     742.645      35.135
   376    161.74  -16617.36860  -16601.71866     740.385      45.536
   377    130.04  -16617.61811  -16601.70219     738.272      54.140
   378    132.64  -16618.04260  -16601.67770     736.141      63.922
   379    156.17  -16618.28707  -16601.63735     733.739      78.499
   380    183.11  -16618.11327  -16601.58522     730.868     100.410
   381    197.08  -16617.40771  -16601.53450     727.575     131.161
   382    190.38  -16616.29961  -16601.47227     724.056     167.802
   383    168.06  -16615.21483  -16601.40830     720.796     206.133
   384    143.89  -16614.65311  -16601.34823     718.408     239.594
   385    133.78  -16615.00642  -16601.30746     717.576     261.205
   386    144.46  -16616.26877  -16601.27464     718.953     266.582
   387    170.35  -16618.05312  -16601.20045     723.065     253.569
   388    200.99  -16620.05797  -16601.18934     730.167     223.245
   389    227.34  -16621.74057  -16601.12637     740.117     177.595
   390    245.89  -16622.85787  -16601.06048     752.643     121.149
   391    261.43  -16623.40866  -16601.00992     767.179      59.219
   392    280.88  -16623.48958  -16600.99792     782.916      -3.215
   393    308.47  -16623.19512  -16601.00345     798.892     -60.744
   394    343.92  -16622.69609  -16601.03756     814.141    -109.667
   395    383.04  -16622.17566  -16601.09091     827.809    -147.510
   396    419.45  -16621.80677  -16601.15436     839.240    -173.270
   397    446.37  -16621.69913  -16601.21953     848.011    -186.785
   398    458.36  -16621.87236  -16601.28469     853.943    -188.443
   399    452.68  -16622.25143  -16601.34940     857.077    -178.808
   400    430.00  -16622.69144  -16601.41195     857.668    -158.957
   401    394.36  -16623.01909  -16601.46616     856.157    -129.988
   402    352.23  -16623.08225  -16601.50181     853.156     -93.709
   403    310.85  -16622.80220  -16601.51075     849.418     -52.854
   404    276.55  -16622.21113  -16601.49291     845.779     -10.876
   405    253.37  -16621.45013  -16601.45901     843.072      28.108
   406    242.45  -16620.71376  -16601.42203     842.033      59.772
   407    242.30  -16620.17202  -16601.40084     843.194      80.101
   408    249.51  -16619.85534  -16601.38630     846.802      87.400
   409    259.80  -16619.66992  -16601.38214     852.799      81.977
   410    268.96  -16619.42358  -16601.38201     860.847      65.464
   411    273.66  -16618.92914  -16601.37983     870.392      41.576
   412    272.04  -16618.09549  -16601.37193     880.757      14.078
   413    264.23  -16616.97043  -16601.35833     891.231     -13.231
   414    252.50  -16615.72246  -16601.34063     901.146     -37.676
   415    240.89  -16614.58558  -16601.32310     909.938     -56.934
   416    234.39  -16613.78356  -16601.30800     917.191     -69.893
   417    237.86  -16613.46859  -16601.29767     922.661     -75.926
   418    254.78  -16613.67977  -16601.29198     926.289     -75.069
   419    286.10  -16614.33878  -16601.29348     928.188     -67.958
   420    329.33  -16615.27187  -16601.30971     928.622     -55.312
   421    378.15  -16616.23544  -16601.33614     927.971     -38.954
   422    422.98  -16616.98998  -16601.37711     926.683     -20.499
   423    452.82  -16617.33123  -16601.42486     925.239      -2.304
   424    458.20  -16617.13957  -16601.46759     924.109      13.668
   425    434.64  -16616.40887  -16601.49407     923.730      25.312
   426    384.82  -16615.25378  -16601.49901     924.484      30.971
   427    318.32  -16613.88233  -16601.48477     926.672      29.614
   428    248.82  -16612.54230  -16601.45951     930.484      20.710
   429    190.05  -16611.44919  -16601.43241     935.971       4.683
   430    151.99  -16610.72332  -16601.40916     943.014     -17.342
   431    138.91  -16610.36633  -16601.39064     951.329     -43.471
   432    149.23  -16610.28651  -16601.37891     960.487     -71.258
   433    176.80  -16610.34087  -16601.37356     969.969     -98.827
   434    213.01  -16610.39402  -16601.37606     979.226    -124.219
   435    249.05  -16610.35454  -16601.38311     987.740    -145.874
   436    277.86  -16610.19607  -16601.39131     995.071    -163.017
   437    295.56  -16609.95185  -16601.39682    1000.881    -175.294
   438    302.03  -16609.70080  -16601.39706    1004.946    -182.531
   439    300.66  -16609.54576  -16601.39135    1007.146    -184.964
   440    297.30  -16609.58872  -16601.38038    1007.463    -182.783
   441    298.72  -16609.90783  -16601.36616    1005.965    -176.279
   442    310.73  -16610.53652  -16601.35180    1002.794    -165.839
   443    336.42  -16611.44793  -16601.34194     998.147    -151.780
   444    374.59  -16612.54688  -16601.34289     992.256    -134.321
   445    419.05  -16613.67195  -16601.35972     985.371    -113.681
   446    459.05  -16614.61509  -16601.39751     977.743     -89.961
   447    481.34  -16615.14213  -16601.44712     969.616     -63.317
   448    474.86  -16615.06440  -16601.49231     961.223     -34.377
   449    436.40  -16614.31530  -16601.51484     952.790      -3.773
   450    373.83  -16613.00603  -16601.50733     944.553      27.213
   451    304.61  -16611.41747  -16601.47679     936.762      57.009
   452    249.42  -16609.91934  -16601.44167     929.683      83.819
   453    224.06  -16608.84463  -16601.41809     923.580     105.491
   454    233.26  -16608.38263  -16601.41544     918.690     120.667
   455    268.43  -16608.51644  -16601.43122     915.199     128.816
   456    310.97  -16609.04884  -16601.45273     913.232     129.691
   457    340.67  -16609.71875  -16601.46996     912.845     123.229
   458    345.11  -16610.32637  -16601.47893     914.022     109.602
   459    324.63  -16610.80068  -16601.48033     916.665      89.374
   460    290.86  -16611.18490  -16601.47540     920.590      63.421
   461    260.43  -16611.57146  -16601.46616     925.517      33.224
   462    247.81  -16612.03178  -16601.45469     931.081       0.583
   463    260.52  -16612.58504  -16601.44681     936.852     -32.435
   464    297.46  -16613.19958  -16601.44880     942.368     -63.777
   465    349.98  -16613.81449  -16601.46276     947.174     -91.648
   466    404.81  -16614.36980  -16601.48701     950.854    -114.657
   467    447.99  -16614.82842  -16601.51761     953.058    -132.160
   468    468.86  -16615.18471  -16601.54635     953.503    -143.760
   469    462.99  -16615.48469  -16601.58124     951.978    -149.587
   470    432.96  -16615.78426  -16601.61867     948.345    -149.758
   471    386.89  -16616.13640  -16601.65547     942.546    -144.138
   472    335.38  -16616.56681  -16601.68983     934.623    -132.980
   473    288.27  -16617.06562  -16601.74725     924.727    -116.283
   474    251.78  -16617.47932  -16601.81307     913.154     -94.086
   475    226.83  -16617.51903  -16601.81477     900.385     -66.653
   476    210.26  -16617.04342  -16601.77455     887.089     -35.716
   477    198.03  -16616.09368  -16601.70153     874.063      -4.209
   478    188.14  -16614.95869  -16601.59823     862.145      23.291
   479    181.75  -16614.16383  -16601.52143     852.078      41.962
   480    182.30  -16614.14557  -16601.47071     844.369      47.486
   481    193.14  -16615.07125  -16601.45986     839.173      38.538
   482    215.57  -16616.67335  -16601.46941     836.249      16.682
   483    248.53  -16618.39937  -16601.48201     835.016     -13.417
   484    289.99  -16619.69819  -16601.49158     834.683     -46.500
   485    338.39  -16620.27050  -16601.50302     834.394     -77.004
   486    393.09  -16620.14628  -16601.52068     833.368    -101.453
   487    453.32  -16619.60666  -16601.54653     830.974    -117.074
   488    516.66  -16619.02464  -16601.57611     826.766    -122.967
   489    577.95  -16618.72663  -16601.61045     820.479    -118.135
   490    629.41  -16618.89314  -16601.65722     812.017    -102.020
   491    662.17  -16619.48201  -16601.70172     801.436     -73.064
   492    668.87  -16620.33496  -16601.81028     788.971     -30.438
   493    646.63  -16621.02697  -16601.92833     775.079      26.943
   494    599.05  -16621.11362  -16602.02083     760.526      98.416
   495    536.33  -16620.25905  -16602.00093     746.494     179.322
   496    472.67  -16618.64326  -16601.86438     734.654     258.847
   497    420.45  -16617.05445  -16601.61940     727.104     318.577
   498    382.91  -16616.79300  -16601.51125     726.050     336.963
   499    351.12  -16618.45891  -16601.71578     733.166     300.218
   500    311.73  -16621.04242  -16602.09095     748.798     213.255
   501    260.48  -16622.78708  -16602.37540     771.395      99.838
   502    206.23  -16622.87460  -16602.38373     797.514     -11.050
   503    161.58  -16622.17651  -16602.17379     822.389     -97.066
   504    132.92  -16622.39998  -16602.18458     841.018    -144.409
   505    118.77  -16623.50725  -16602.37234     849.909    -145.357
   506    114.14  -16623.36017  -16602.40231     849.359    -100.762
   507    114.61  -16620.65724  -16601.93666     845.449     -35.268
   508    116.62  -16618.79225  -16601.45580     848.429      -6.142
   509    115.28  -16621.10133  -16601.89634     864.403     -49.873
   510    106.41  -16622.77865  -16602.17903     886.583    -121.330
   511     95.36  -16620.88998  -16601.70850     899.586    -149.969
   512     95.23  -16619.86402  -16601.50495     891.924    -105.642
   513    111.88  -16620.98322  -16601.85408     865.010      11.711
   514    130.11  -16619.58563  -16601.63373     834.817     157.715
   515    126.99  -16618.59180  -16601.08918     825.984     193.359
   516    108.15  -16622.77786  -16601.99910     848.836      44.242
   517     89.33  -16621.90248  -16601.64567     881.660    -132.096
   518     72.13  -16618.83793  -16601.08477     894.412    -209.108
   519     55.68  -16620.21881  -16601.49086     874.804    -166.100
   520     48.30  -16620.36216  -16601.48825     835.326     -26.158
   521     67.14  -16619.43386  -16600.91119     804.844      85.526
   522    104.70  -16623.26769  -16601.61829     798.385      57.554
   523    120.16  -16622.14345  -16601.34270     800.499      -3.609
   524    101.63  -16618.14015  -16600.95483     792.807       1.617
   525     75.96  -16618.62332  -16601.16976     771.718      77.764
   526     70.15  -16620.35981  -16601.31771     745.706     193.956
   527     88.06  -16619.05872  -16601.01318     729.203     271.514
   528    119.48  -16619.20457  -16601.03079     732.839     216.883
   529    156.03  -16620.94105  -16601.22758     753.344      63.871
   530    195.53  -16619.75435  -16601.11775     777.726     -78.693
   531    240.34  -16617.49557  -16601.12906     794.664    -158.001
   532    291.99  -16617.67091  -16601.19828     799.321    -171.032
   533    348.51  -16620.39881  -16601.16686     792.618    -127.608
   534    404.72  -16623.18293  -16601.09495     779.067     -40.734
   535    454.46  -16623.97175  -16600.99818     764.605      65.978
   536    494.65  -16623.41054  -16600.95791     754.531     158.355
   537    526.84  -16623.37229  -16600.94349     751.880     205.611
   538    553.89  -16624.44255  -16601.03087     756.860     200.918
   539    577.26  -16625.31417  -16601.12467     767.559     159.824
   540    597.57  -16624.93458  -16601.23554     781.229     104.475
   541    613.74  -16623.42048  -16601.29848     795.285      51.646
   542    620.65  -16621.75192  -16601.34468     807.768       8.929
   543    610.23  -16620.78798  -16601.39487     817.395     -19.768
   544    575.40  -16620.82386  -16601.48215     823.488     -32.259
   545    514.51  -16621.47282  -16601.60736     825.978     -27.328
   546    436.01  -16621.89981  -16601.72802     825.501      -5.435
   547    359.58  -16621.36521  -16601.76672     823.482      27.888
   548    310.58  -16619.89506  -16601.68617     822.043      60.479
   549    307.79  -16618.50673  -16601.57059     823.542      76.372
   550    349.27  -16618.34352  -16601.55118     829.742      62.916
   551    407.88  -16619.38563  -16601.65302     840.979      20.081
   552    444.55  -16620.34624  -16601.76358     855.832     -38.528
   553    431.63  -16620.01443  -16601.76723     871.531     -94.800
   554    367.90  -16618.40767  -16601.65999     884.776    -134.818
   555    275.13  -16616.61157  -16601.54376     892.605    -151.572
   556    183.64  -16615.74219  -16601.51788     893.119    -142.631
   557    119.08  -16616.03523  -16601.59287     886.055    -107.327
   558     95.25  -16616.65190  -16601.66084     873.211     -48.660
   559    110.88  -16616.56905  -16601.62553     858.452      23.209
   560    151.58  -16615.93976  -16601.48204     846.940      85.375
   561    199.88  -16616.25164  -16601.38642     843.199     109.907
   562    245.27  -16618.20438  -16601.53413     848.833      84.020
   563    283.64  -16620.03406  -16601.65455     861.508      22.365
   564    310.68  -16620.05196  -16601.62006     876.142     -45.163
   565    319.75  -16618.65168  -16601.49457     887.258     -94.752
   566    305.11  -16617.49615  -16601.42282     890.859    -114.287
   567    266.56  -16617.49904  -16601.46908     885.410     -99.984
   568    213.02  -16617.94104  -16601.56155     872.187     -52.618
   569    164.99  -16617.43409  -16601.50217     855.199      16.243
   570    151.22  -16616.22774  -16601.34507     840.104      79.321
   571    192.02  -16616.25537  -16601.28452     831.790     103.931
   572    277.34  -16618.18978  -16601.40411     831.697      79.102
   573    368.44  -16620.13085  -16601.50076     837.215      25.905
   574    427.66  -16620.57592  -16601.47937     843.685     -25.892
   575    442.73  -16620.14182  -16601.41211     846.869     -58.178
   576    426.74  -16620.19711  -16601.40630     844.283     -65.349
   577    403.62  -16621.13652  -16601.50231     835.507     -47.798
   578    393.11  -16622.02460  -16601.65231     822.164      -9.240
   579    401.43  -16621.58311  -16601.67049     807.760      39.084
   580    421.51  -16620.07260  -16601.53900     796.918      75.228
   581    442.74  -16619.35885  -16601.44705     793.644      73.919
   582    460.97  -16620.42096  -16601.59405     799.099      27.908
   583    478.98  -16621.73321  -16601.74135     810.533     -41.991
   584    499.85  -16621.89175  -16601.69903     822.464    -103.256
   585    521.65  -16621.65773  -16601.56652     829.121    -131.890
   586    537.06  -16622.62671  -16601.60240     826.637    -115.469
   587    534.86  -16624.65740  -16601.90721     814.567     -48.277
   588    503.05  -16625.25173  -16602.12134     797.113      61.883
   589    439.18  -16623.12360  -16601.72788     783.491     169.199
   590    361.09  -16622.03205  -16601.56947     784.563     190.434
   591    290.53  -16622.98333  -16602.04057     803.792      99.437
   592    232.60  -16621.66666  -16601.79725     831.357     -22.641
   593    184.59  -16620.29517  -16601.43113     851.035     -91.587
   594    147.60  -16621.97439  -16601.94274     852.150     -73.855
   595    133.23  -16621.24497  -16601.92133     839.867      14.154
   596    158.72  -16619.15871  -16601.08824     838.238      45.002
   597    203.20  -16621.87619  -16601.99013     861.060     -64.462
   598    217.82  -16620.70294  -16601.34236     880.795    -148.882
   599    196.58  -16621.64837  -16601.53638     867.355     -97.911
   600    163.48  -16622.17106  -16602.03209     826.331      83.202
   601    128.55  -16619.45956  -16600.95380     803.340     184.294
   602     84.24  -16621.85766  -16602.06683     825.681      18.810
   603     45.62  -16619.09430  -16601.01627     844.872    -109.808
   604     30.88  -16620.71777  -16601.92658     825.010     -59.232
   605     27.22  -16617.70604  -16600.68804     791.225      95.437
   606     32.00  -16621.05233  -16602.05450     801.095      26.824
   607     59.19  -16619.84839  -16601.09391     822.420     -68.663
   608    112.54  -16621.41388  -16601.58640     811.481       9.072
   609    158.18  -16621.02920  -16601.29262     786.469     186.639
   610    173.71  -16622.55044  -16601.65209     803.119     121.603
   611    179.18  -16622.67971  -16601.46959     849.636     -93.739
   612    176.73  -16620.89457  -16601.11271     867.921    -154.734
   613    153.96  -16622.36792  -16601.75822     846.018     -44.281
   614    126.51  -16620.22498  -16600.84097     822.016      80.693
   615    125.79  -16623.22576  -16601.68102     827.413      18.672
   616    141.50  -16621.85141  -16601.15219     835.941     -60.599
   617    158.30  -16621.62433  -16601.11902     822.325     -32.893
   618    183.42  -16624.11797  -16601.42022     791.158      86.657
   619    231.26  -16623.45146  -16600.97854     765.376     192.743
   620    298.29  -16624.92379  -16601.19695     763.831     144.589
   621    352.91  -16626.22638  -16601.31721     780.609       0.981
   622    373.83  -16624.10903  -16601.07727     797.577    -102.629
   623    366.99  -16623.29213  -16601.10474     803.663    -125.445
   624    344.30  -16624.60189  -16601.23931     798.286     -76.809
   625    314.76  -16624.63091  -16601.19504     788.343      13.163
   626    284.89  -16622.98721  -16601.02628     783.352      89.519
   627    261.91  -16622.58222  -16601.03148     789.156     103.716
   628    258.47  -16623.36161  -16601.08022     804.305      60.307
   629    290.57  -16623.32465  -16601.04388     822.548      -1.301
   630    364.15  -16622.70126  -16601.09193     837.623     -50.309
   631    463.94  -16622.80321  -16601.18652     845.826     -74.898
   632    556.76  -16623.95016  -16601.31142     846.241     -72.552
   633    607.13  -16625.01888  -16601.39842     840.150     -45.576
   634    596.00  -16624.80920  -16601.48832     830.149      -1.779
   635    533.39  -16623.10973  -16601.47329     819.651      42.565
   636    454.22  -16621.26907  -16601.43707     811.911      66.487
   637    396.68  -16620.60727  -16601.47341     808.759      56.870
   638    381.17  -16620.97632  -16601.56029     809.991      19.035
   639    403.49  -16621.28023  -16601.61400     813.724     -27.972
   640    443.24  -16620.99656  -16601.61508     817.432     -64.495
   641    477.01  -16620.60276  -16601.60415     818.961     -78.694
   642    487.71  -16620.79830  -16601.63434     817.099     -66.683
   643    469.05  -16621.66648  -16601.73238     811.770     -29.561
   644    425.28  -16622.46621  -16601.86353     804.065      27.645
   645    366.40  -16622.15304  -16601.92736     796.219      93.975
   646    301.98  -16620.43678  -16601.84231     791.378     150.427
   647    239.34  -16618.50633  -16601.69054     792.891     172.118
   648    186.88  -16618.01969  -16601.66234     802.982     141.600
   649    154.84  -16618.96676  -16601.75632     821.327      64.470
   650    150.61  -16619.63335  -16601.78353     844.632     -31.886
   651    173.98  -16618.93476  -16601.67848     867.749    -118.319
   652    216.92  -16617.62528  -16601.54624     885.449    -176.958
   653    266.91  -16617.20967  -16601.49592     893.949    -201.437
   654    311.00  -16618.32680  -16601.55009     891.728    -190.337
   655    339.26  -16620.16626  -16601.66377     879.757    -144.618
   656    348.43  -16621.22770  -16601.73834     861.261     -70.761
   657    344.62  -16620.92300  -16601.68078     840.987      13.032
   658    341.76  -16620.52658  -16601.58420     823.841      77.229
   659    350.80  -16621.51107  -16601.67144     812.797      98.217
   660    368.09  -16622.93543  -16601.84919     807.604      79.465
   661    378.79  -16622.69215  -16601.86778     805.698      45.662
   662    373.22  -16620.68361  -16601.71034     804.045      20.703
   663    356.14  -16618.96491  -16601.55066     800.706      15.333
   664    340.17  -16619.36707  -16601.57465     795.325      30.574
   665    334.70  -16621.72196  -16601.78956     788.893      63.536
   666    339.18  -16623.95863  -16602.01201     783.652     106.700
   667    343.12  -16624.23286  -16601.99983     783.270     139.146
   668    336.37  -16623.49601  -16601.85919     791.670     128.713
   669    316.86  -16623.73143  -16601.91917     810.524      57.954
   670    287.21  -16624.04638  -16602.04007     836.803     -49.565
   671    252.60  -16622.45644  -16601.89634     863.209    -149.580
   672    220.66  -16619.87825  -16601.62035     881.305    -210.978
   673    198.79  -16619.06033  -16601.49870     884.833    -222.601
   674    191.65  -16621.10702  -16601.64604     871.747    -181.671
   675    200.71  -16623.97337  -16601.89033     844.918     -88.774
   676    223.55  -16624.68337  -16601.86867     812.058      38.850
   677    255.06  -16623.78548  -16601.65235     783.466     151.362
   678    291.19  -16624.28036  -16601.71301     767.188     189.754
   679    331.14  -16625.47511  -16601.89131     764.911     146.024
   680    374.66  -16624.85027  -16601.79263     772.599      65.115
   681    413.29  -16623.47537  -16601.59635     784.188      -6.585
   682    427.65  -16623.98233  -16601.63462     794.444     -42.919
   683    398.20  -16626.07264  -16601.96397     800.571     -33.095
   684    323.40  -16626.14975  -16602.13951     803.512      16.715
   685    235.09  -16622.85830  -16601.77268     808.461      65.882
   686    183.26  -16620.70989  -16601.55810     821.634      52.762
   687    189.48  -16621.70539  -16601.81488     842.990     -31.836
   688    232.70  -16622.01161  -16601.77311     863.402    -126.976
   689    283.02  -16621.24591  -16601.57182     871.468    -178.073
   690    321.88  -16622.22248  -16601.56657     860.493    -164.224
   691    340.16  -16625.02375  -16601.90598     831.322     -81.034
   692    334.55  -16625.56703  -16602.09340     792.841      59.546
   693    301.66  -16622.35867  -16601.75005     759.811     198.260
   694    238.34  -16620.18559  -16601.61409     745.235     242.674
   695    155.70  -16620.71003  -16601.81430     753.273     166.017
   696     86.86  -16620.53526  -16601.74641     777.487      38.058
   697     61.75  -16619.37906  -16601.45932     805.414     -64.631
   698     86.57  -16620.02296  -16601.40247     826.350    -110.896
   699    145.00  -16622.30660  -16601.63298     835.560     -97.015
   700    208.03  -16622.59364  -16601.65229     835.824     -38.388
   701    250.84  -16620.56148  -16601.38677     835.379      17.850
   702    271.10  -16620.69015  -16601.39017     841.518      16.174
   703    281.13  -16623.17358  -16601.59384     853.289     -43.143
   704    291.06  -16623.99432  -16601.53727     862.493    -109.222
   705    304.92  -16622.93586  -16601.38244     860.973    -140.772
   706    323.53  -16622.63605  -16601.34699     845.537    -122.729
   707    346.26  -16623.93978  -16601.51421     818.293     -52.091
   708    374.04  -16624.77972  -16601.65543     785.783      63.103
   709    409.15  -16623.37921  -16601.63549     756.404     192.828
   710    450.36  -16621.34158  -16601.51589     739.042     277.648
   711    487.54  -16621.87794  -16601.59714     738.813     268.395
   712    502.66  -16624.43111  -16601.82413     754.924     173.807
   713    485.28  -16625.79430  -16601.91747     781.489      48.139
   714    441.68  -16624.87847  -16601.83763     810.365     -59.582
   715    386.63  -16623.23297  -16601.72378     833.935    -126.571
   716    333.19  -16622.48651  -16601.74812     846.948    -147.762
   717    289.51  -16622.37306  -16601.86001     847.585    -126.251
   718    259.23  -16621.39571  -16601.86887     837.921     -72.186
   719    241.99  -16619.43430  -16601.70138     823.385     -10.867
   720    233.65  -16618.77740  -16601.59974     810.229      22.285
   721    228.66  -16620.53309  -16601.78185     801.901      10.093
   722    227.67  -16622.07016  -16601.90895     797.757     -29.047
   723    243.25  -16621.31628  -16601.77283     795.442     -63.834
   724    292.56  -16619.85297  -16601.58730     793.625     -76.851
   725    381.34  -16620.32353  -16601.57949     792.309     -64.443
   726    490.52  -16623.00345  -16601.80042     791.833     -26.233
   727    575.47  -16625.29102  -16602.06078     792.752      34.811
   728    592.24  -16624.78028  -16602.02599     796.877      99.602
   729    539.05  -16622.93032  -16601.78882     807.293     127.428
   730    457.33  -16622.87318  -16601.89572     825.744      86.275
   731    385.68  -16623.57411  -16602.16989     848.991      -6.325
   732    334.76  -16622.22954  -16602.04592     868.678     -99.175
   733    300.74  -16620.08486  -16601.72290     875.517    -153.070
   734    280.27  -16620.39308  -16601.72030     864.003    -150.999
   735    274.94  -16623.08206  -16602.12907     835.450     -86.010
   736    291.00  -16624.01067  -16602.32592     799.360      31.472
   737    330.84  -16621.76896  -16601.82555     771.974     137.628
   738    373.04  -16621.58037  -16601.74778     768.298     135.379
   739    373.73  -16623.51946  -16602.17982     790.202      25.556
   740    315.77  -16622.75666  -16601.99638     823.994     -89.045
   741    229.91  -16621.15891  -16601.72478     850.233    -137.519
   742    156.61  -16621.29887  -16602.02015     855.307    -103.597
   743    117.11  -16619.91437  -16601.94130     840.517      -8.223
   744    109.97  -16618.53655  -16601.46498     823.357      55.933
   745    117.00  -16621.58053  -16602.14720     817.795       8.496
   746    131.87  -16621.15374  -16601.88777     815.779     -69.109
   747    168.66  -16619.05325  -16601.38397     807.321     -89.762
   748    226.90  -16621.52198  -16601.70319     795.045     -35.749
   749    281.34  -16623.99286  -16602.19008     790.014      68.864
   750    302.08  -16621.93999  -16601.47598     803.980     118.512
   751    301.49  -16623.03043  -16601.95355     841.120      11.429
   752    301.46  -16622.31959  -16601.66052     876.181    -119.650
   753    305.80  -16621.66927  -16601.43322     878.893    -151.249
   754    314.32  -16623.34682  -16601.97838     845.229     -63.599
   755    334.15  -16621.95240  -16601.55720     801.434      76.666
   756    364.66  -16623.40339  -16601.99591     784.157      85.625
   757    372.15  -16623.80366  -16602.00133     799.093     -18.725
   758    341.69  -16621.44103  -16601.32678     824.185     -70.882
   759    299.68  -16623.10956  -16601.80758     836.651     -25.089
   760    270.90  -16622.76276  -16601.89717     831.244      77.179
   761    256.13  -16620.89692  -16601.35122     827.662      85.807
   762    233.60  -16622.86258  -16602.05638     834.749     -50.620
   763    194.26  -16620.98721  -16601.48373     829.259    -141.037
   764    157.91  -16620.80866  -16601.72523     805.031     -93.800
   765    137.47  -16620.00775  -16601.73026     784.023      49.115
   766    126.17  -16620.02678  -16601.50529     793.212      93.203
   767    115.12  -16621.94759  -16601.99449     829.635     -21.161
   768    122.16  -16618.51025  -16601.07027     854.656    -101.634
   769    164.03  -16620.10230  -16601.39503     845.143     -83.071
   770    219.85  -16622.99858  -16601.92025     810.069      18.469
   771    265.89  -16621.49857  -16601.37823     783.176      85.005
   772    301.13  -16621.88504  -16601.62044     788.710      11.383
   773    334.51  -16622.07698  -16601.41762     816.969     -93.374
   774    368.99  -16623.21929  -16601.40500     839.568    -110.124
   775    398.60  -16624.40165  -16601.76900     839.191     -22.902
   776    421.67  -16621.58129  -16601.34189     822.789     102.434
   777    444.37  -16622.00380  -16601.41105     810.599     121.795
   778    458.97  -16625.07748  -16602.01263     807.229      23.485
   779    453.86  -16622.87788  -16601.55577     804.056     -60.077
   780    437.76  -16621.33314  -16601.39716     802.759     -71.871
   781    425.95  -16623.41671  -16601.76781     809.619     -29.309
   782    427.33  -16624.26170  -16601.85465     825.170      12.403
   783    425.32  -16622.38386  -16601.55177     845.141      -0.783
   784    397.80  -16620.74036  -16601.27682     859.856     -61.846
   785    351.97  -16621.91206  -16601.40777     853.583    -109.773
   786    309.42  -16624.01589  -16602.02532     818.224     -82.452
   787    284.28  -16621.29598  -16601.61536     774.221      28.337
   788    275.27  -16619.70427  -16601.20212     763.355      97.628
   789    256.92  -16622.79574  -16602.00611     794.634      42.247
   790    216.64  -16620.41927  -16601.39225     827.525     -12.684
   791    194.34  -16618.67055  -16601.06467     831.248     -12.710
   792    209.02  -16621.86721  -16601.73265     805.366      21.046
   793    236.44  -16621.75150  -16601.70757     772.276      56.739
   794    254.09  -16619.37974  -16601.03435     769.869      10.729
   795    272.56  -16621.77091  -16601.47695     808.918     -94.507
   796    303.56  -16623.42517  -16601.47571     845.705    -110.222
   797    353.19  -16622.38144  -16601.30397     848.584     -15.231
   798    417.53  -16621.79668  -16600.95949     828.453      78.160
   799    471.42  -16625.96962  -16601.88457     806.341      51.742
   800    482.43  -16624.74509  -16601.65699     785.599     -15.598
   801    451.37  -16622.32474  -16600.98795     781.884     -33.587
   802    407.05  -16625.69608  -16601.97959     807.742      -9.073
   803    370.08  -16623.79082  -16601.41452     837.959      26.377
   804    350.85  -16621.56436  -16601.05370     860.416     -20.668
   805    335.30  -16623.23821  -16601.29877     857.174     -98.628
   806    316.50  -16625.16526  -16601.94607     807.954     -63.927
   807    308.86  -16621.14448  -16600.49626     752.893      99.615
   808    309.98  -16624.15554  -16601.71279     783.726      97.177
   809    286.67  -16623.39646  -16601.35116     845.319     -28.528
   810    242.94  -16620.98400  -16600.77156     860.155     -76.003
   811    197.17  -16623.97302  -16601.77119     815.538     -22.791
   812    166.50  -16621.01540  -16600.70690     765.558      36.269
   813    155.96  -16621.74603  -16601.37368     810.279     -65.956
   814    158.41  -16622.76104  -16601.39659     853.106     -77.663
   815    168.55  -16621.51482  -16601.07637     827.748      45.141
   816    195.16  -16623.96936  -16601.96302     786.348      39.240
   817    232.07  -16623.18231  -16601.06081     765.804     -23.639
   818    258.26  -16623.51679  -16601.36851     799.855      24.007
   819    269.02  -16624.75525  -16601.69707     837.115       0.371
   820    289.54  -16623.38732  -16601.22277     840.258     -73.849
   821    312.05  -16624.91329  -16601.89005     789.169      14.014
   822    304.54  -16624.02418  -16601.55205     751.333     171.366
   823    276.16  -16623.84111  -16601.64326     797.801      20.752
   824    264.08  -16625.50704  -16601.99739     843.646     -81.191
   825    263.61  -16622.65364  -16600.79097     825.354      24.889
   826    270.58  -16626.64218  -16602.60538     799.568     -13.056
   827    263.74  -16623.35035  -16601.10057     781.493     -24.993
   828    260.40  -16625.28370  -16601.94809     819.745       7.709
   829    246.93  -16624.00533  -16601.49133     842.458      22.862
   830    223.32  -16623.64383  -16601.43737     828.011     -41.300
   831    196.64  -16623.66645  -16601.74461     781.443     -35.815
   832    183.17  -16622.74595  -16601.85340     813.834       2.064
   833    170.34  -16622.72216  -16602.03460     875.245     -70.339
   834    144.14  -16621.88407  -16601.68404     858.515     -47.764
   835    127.89  -16622.95056  -16602.65363     777.138      63.842
   836    130.84  -16621.64907  -16601.52516     759.166      71.868
   837    146.00  -16622.83917  -16601.47032     851.967     -58.729
   838    170.35  -16621.25563  -16601.33359     890.760     -80.304
   839    197.22  -16623.34959  -16601.54339     851.754     -27.692
   840    228.15  -16624.21213  -16602.19964     780.970      11.597
   841    260.63  -16621.85833  -16600.95557     758.126       4.755
   842    290.26  -16626.02447  -16601.81087     817.534     -31.649
   843    307.82  -16623.00209  -16601.13526     862.386       0.415
   844    326.13  -16622.03340  -16601.16824     872.933       6.376
   845    352.38  -16624.60479  -16601.35330     853.816     -33.407
   846    383.82  -16625.92285  -16601.66079     807.954     -47.292
   847    410.91  -16623.09856  -16601.29278     761.744       9.772
   848    429.40  -16623.58608  -16601.55426     758.487      62.224
   849    439.40  -16625.49559  -16601.67642     798.039      45.063
   850    442.70  -16624.29606  -16601.51400     846.194     -10.869
   851    439.03  -16621.90373  -16601.35509     875.662     -52.459
   852    431.92  -16621.66687  -16601.37599     872.434     -49.550
   853    427.57  -16623.82674  -16601.64195     838.785      -1.851
   854    422.73  -16624.62607  -16601.89450     790.926      66.571
   855    410.39  -16622.12357  -16601.66022     754.136     100.573
   856    392.27  -16620.62734  -16601.43374     752.981      52.759
   857    377.95  -16622.57723  -16601.78223     789.577     -37.062
   858    374.92  -16623.11791  -16601.70507     836.907     -83.703
   859    382.50  -16621.82359  -16601.58909     869.189     -69.671
   860    394.21  -16620.50848  -16601.55229     878.601     -25.324
   861    407.09  -16620.70037  -16601.51006     869.665       5.794
   862    426.06  -16623.12366  -16601.69435     847.035       0.749
   863    455.14  -16625.06271  -16601.99043     811.074     -12.288
   864    487.96  -16623.40484  -16601.73787     769.265      14.986
   865    508.48  -16622.19880  -16601.42565     746.351      77.601
   866    504.54  -16624.89656  -16601.98585     763.338     104.853
   867    482.32  -16626.07483  -16601.99731     811.110      51.411
   868    456.32  -16624.52538  -16601.75668     863.150     -43.704
   869    431.67  -16622.44580  -16601.26068     889.645     -99.031
   870    411.49  -16624.43436  -16601.56955     870.830     -74.123
   871    401.41  -16627.32990  -16602.23909     811.729      24.298
   872    400.10  -16625.41486  -16602.03849     749.947      99.695
   873    392.25  -16624.52230  -16601.55659     751.165      17.605
   874    357.04  -16626.92415  -16602.04792     814.450     -62.764
   875    300.45  -16624.17364  -16601.50843     850.194      14.122
   876    259.07  -16623.03083  -16601.02240     851.286      41.370
   877    239.47  -16626.57670  -16602.06961     826.288     -83.118
   878    221.29  -16623.08167  -16600.80329     748.275     -16.056
   879    190.94  -16626.10854  -16602.65063     759.719     115.474
   880    160.26  -16624.84772  -16602.23345     840.601     -36.763
   881    146.15  -16623.58707  -16601.62476     841.989     -55.740
   882    132.73  -16624.39935  -16601.93425     752.164     132.346
   883    133.50  -16619.50412  -16597.71197     776.426    -107.592
   884    125.45  -16622.10251  -16598.05723     821.471      77.800
   885    153.43  -16617.05296  -16593.67918     893.359    -209.066
   886    143.46  -16622.54660  -16598.27245     733.794     253.206
   887    181.24  -16610.62792  -16587.77883     817.417    -172.204
   888    142.97  -16608.63585  -16583.87430     799.553     299.749
   889    160.50  -16560.01868  -16537.77614    1005.084    -467.307
   890    153.82  -16620.64851  -16591.65067     770.941     224.158
   891    152.90  -16622.73766  -16595.58986     722.747     189.002
   892    157.67  -16593.70909  -16564.11853     990.397    -311.112
   893    143.70  -16573.66196  -16536.68263     864.361     475.135
   894    195.34  -16431.18550  -16367.71111    1246.506    -485.258
   895    208.12  -16430.84295  -16369.79680    1107.853    -448.638
   896    230.45  -16594.40808  -16541.06071     729.921     651.351
   897    259.68  -16616.94978  -16576.49186     767.400     260.249
   898    244.18  -16537.77918  -16511.92378    1017.575    -507.448
   899    229.48  -16615.83795  -16560.42027     921.838    -196.999
   900    273.33  -16421.09799  -16129.78243     701.959    1572.244
   901    418.45  -16208.50431  -14713.31410    1704.481     -91.862
   902   1126.67  -16231.52918  -14764.64790    1847.383     -79.803
